PASP ukwk4iii
// Data as: wavelength(nm) Pflux.for.exactly.Vmag10(photons/s/nm/m2),
//   adapted from Pickles A.J., PASP 110 863(1998).
   280.00000     26.13881
   280.50000     26.22849
   281.00000     25.93590
   281.50000     25.35610
   282.00000     24.57949
   282.50000     23.71331
   283.00000     22.84391
   283.50000     22.06367
   284.00000     21.48198
   284.50000     21.18713
   285.00000     21.28446
   285.50000     21.84171
   286.00000     22.82292
   286.50000     24.15891
   287.00000     25.78550
   287.50000     27.63806
   288.00000     29.64596
   288.50000     31.74915
   289.00000     33.87054
   289.50000     35.94357
   290.00000     37.90126
   290.50000     39.68730
   291.00000     41.30634
   291.50000     42.76308
   292.00000     44.06785
   292.50000     45.24226
   293.00000     46.29687
   293.50000     47.24230
   294.00000     48.09487
   294.50000     48.86538
   295.00000     49.57038
   295.50000     50.22083
   296.00000     50.83349
   296.50000     51.41384
   297.00000     51.99015
   297.50000     52.56241
   298.00000     53.15916
   298.50000     53.78621
   299.00000     54.46092
   299.50000     55.20074
   300.00000     56.01173
   300.50000     56.92304
   301.00000     57.95246
   301.50000     59.12949
   302.00000     60.48956
   302.50000     62.05676
   303.00000     63.86113
   303.50000     65.92711
   304.00000     68.29091
   304.50000     70.98316
   305.00000     74.02884
   305.50000     77.44719
   306.00000     81.19308
   306.50000     85.20931
   307.00000     89.42653
   307.50000     93.79851
   308.00000     98.26098
   308.50000    102.74335
   309.00000    107.19828
   309.50000    111.56029
   310.00000    115.76351
   310.50000    119.75948
   311.00000    123.58888
   311.50000    127.27471
   312.00000    130.87008
   312.50000    134.42239
   313.00000    137.96140
   313.50000    141.53507
   314.00000    145.19167
   314.50000    148.96770
   315.00000    152.91804
   315.50000    157.04952
   316.00000    161.27812
   316.50000    165.50110
   317.00000    384.17854
   317.50000    366.00265
   318.00000    348.15772
   318.50000    321.06027
   319.00000    299.33663
   319.50000    297.27027
   320.00000    421.12843
   320.50000    418.56717
   321.00000    397.32078
   321.50000    360.87028
   322.00000    322.79223
   322.50000    296.46980
   323.00000    284.18099
   323.50000    284.39146
   324.00000    291.43924
   324.50000    300.19313
   325.00000    311.95675
   325.50000    328.75297
   326.00000    348.97383
   326.50000    369.84974
   327.00000    387.64755
   327.50000    399.78522
   328.00000    409.36145
   328.50000    421.50270
   329.00000    443.80109
   329.50000    477.10491
   330.00000    492.72606
   330.50000    468.06155
   331.00000    435.05905
   331.50000    428.13532
   332.00000    436.19524
   332.50000    440.87395
   333.00000    440.61135
   333.50000    439.39343
   334.00000    446.40340
   334.50000    467.21825
   335.00000    487.72728
   335.50000    489.93440
   336.00000    460.46377
   336.50000    399.51581
   337.00000    357.40277
   337.50000    376.35178
   338.00000    415.19441
   338.50000    429.45434
   339.00000    446.11344
   339.50000    493.63455
   340.00000    534.05282
   340.50000    529.30327
   341.00000    508.31358
   341.50000    508.30609
   342.00000    531.75956
   342.50000    565.23910
   343.00000    566.46535
   343.50000    506.44994
   344.00000    439.05004
   344.50000    422.18176
   345.00000    445.72941
   345.50000    481.84090
   346.00000    500.26016
   346.50000    483.33515
   347.00000    466.78493
   347.50000    483.89741
   348.00000    503.93899
   348.50000    495.73804
   349.00000    491.33147
   349.50000    524.74260
   350.00000    573.87291
   350.50000    606.21025
   351.00000    604.43754
   351.50000    565.51804
   352.00000    528.63782
   352.50000    532.78077
   353.00000    573.11461
   353.50000    631.07710
   354.00000    677.33967
   354.50000    685.59463
   355.00000    652.73405
   355.50000    587.17046
   356.00000    520.00043
   356.50000    476.03130
   357.00000    431.51934
   357.50000    366.60992
   358.00000    326.24280
   358.50000    354.98392
   359.00000    429.95921
   359.50000    513.15649
   360.00000    573.97642
   360.50000    503.89350
   361.00000    512.82026
   361.50000    533.32143
   362.00000    566.83275
   362.50000    608.01571
   363.00000    642.85279
   363.50000    658.94923
   364.00000    663.34437
   364.50000    670.38324
   365.00000    692.70565
   365.50000    737.56979
   366.00000    786.91793
   366.50000    816.87448
   367.00000    821.78782
   367.50000    803.77430
   368.00000    778.36532
   368.50000    763.36693
   369.00000    758.21353
   369.50000    755.43031
   370.00000    754.53755
   370.50000    753.06437
   371.00000    739.15321
   371.50000    704.97030
   372.00000    658.20655
   372.50000    608.57263
   373.00000    565.90305
   373.50000    537.95875
   374.00000    525.66682
   374.50000    530.10255
   375.00000    542.46263
   375.50000    555.53040
   376.00000    583.93263
   376.50000    638.52717
   377.00000    709.56810
   377.50000    778.89930
   378.00000    808.66808
   378.50000    773.30085
   379.00000    706.24171
   379.50000    649.50748
   380.00000    622.30445
   380.50000    626.66077
   381.00000    622.10895
   381.50000    572.27579
   382.00000    504.15728
   382.50000    454.85604
   383.00000    435.87761
   383.50000    450.30384
   384.00000    483.58062
   384.50000    517.08995
   385.00000    543.69588
   385.50000    557.70331
   386.00000    560.13588
   386.50000    557.76458
   387.00000    553.17456
   387.50000    553.26531
   388.00000    581.33454
   388.50000    649.39098
   389.00000    728.96234
   389.50000    790.91402
   390.00000    837.62948
   390.50000    878.02460
   391.00000    906.01865
   391.50000    903.07219
   392.00000    838.67886
   392.50000    702.69470
   393.00000    559.73195
   393.50000    491.34277
   394.00000    540.29601
   394.50000    702.33543
   395.00000    876.37619
   395.50000    951.61574
   396.00000    902.99205
   396.50000    773.54807
   397.00000    707.51678
   397.50000    826.96223
   398.00000   1070.22348
   398.50000   1324.40574
   399.00000   1533.08722
   399.50000   1672.20916
   400.00000   1756.05386
   400.50000   1818.25369
   401.00000   1890.41166
   401.50000   1978.76000
   402.00000   2034.20245
   402.50000   2013.03822
   403.00000   1944.32124
   403.50000   1883.81968
   404.00000   1878.23164
   404.50000   1943.44764
   405.00000   2025.15339
   405.50000   2058.32590
   406.00000   2028.86186
   406.50000   1962.68793
   407.00000   1928.94085
   407.50000   1983.42791
   408.00000   2102.91757
   408.50000   2229.11515
   409.00000   2293.46680
   409.50000   2258.45859
   410.00000   2179.41681
   410.50000   2129.91196
   411.00000   2131.19055
   411.50000   2169.48446
   412.00000   2205.44846
   412.50000   2202.49506
   413.00000   2161.20285
   413.50000   2105.47331
   414.00000   2059.86387
   414.50000   2041.50254
   415.00000   2066.35882
   415.50000   2131.04480
   416.00000   2185.01151
   416.50000   2190.53587
   417.00000   2169.02532
   417.50000   2153.57119
   418.00000   2168.74618
   418.50000   2217.44404
   419.00000   2252.89516
   419.50000   2243.46523
   420.00000   2240.01242
   420.50000   2294.47619
   421.00000   2377.53460
   421.50000   2439.65534
   422.00000   2467.94977
   422.50000   2475.23109
   423.00000   2518.72705
   423.50000   2642.77699
   424.00000   2771.68054
   424.50000   2821.60790
   425.00000   2832.89893
   425.50000   2859.05334
   426.00000   2881.76635
   426.50000   2879.44216
   427.00000   2859.57201
   427.50000   2835.98437
   428.00000   2838.07066
   428.50000   2868.94380
   429.00000   2825.42581
   429.50000   2642.91488
   430.00000   2480.72635
   430.50000   2508.67298
   431.00000   2702.31088
   431.50000   2976.90522
   432.00000   3253.11409
   432.50000   3463.54681
   433.00000   3601.54875
   433.50000   3690.03491
   434.00000   3742.56808
   434.50000   3779.09605
   435.00000   3848.74365
   435.50000   3970.21599
   436.00000   4088.43854
   436.50000   4139.38129
   437.00000   4068.31247
   437.50000   3873.68908
   438.00000   3695.62892
   438.50000   3655.49136
   439.00000   3708.40024
   439.50000   3776.24774
   440.00000   3832.99701
   440.50000   3882.33350
   441.00000   3959.12769
   441.50000   4081.80368
   442.00000   4193.22452
   442.50000   4241.30389
   443.00000   4268.26006
   443.50000   4327.94579
   444.00000   4408.30935
   444.50000   4474.06818
   445.00000   4487.44341
   445.50000   4440.13666
   446.00000   4428.51712
   446.50000   4543.52417
   447.00000   4740.65854
   447.50000   4935.52044
   448.00000   5060.44693
   448.50000   5087.41600
   449.00000   5097.45128
   449.50000   5183.14871
   450.00000   5351.62709
   450.50000   5554.11142
   451.00000   5666.99221
   451.50000   5596.41172
   452.00000   5421.61920
   452.50000   5263.34047
   453.00000   5175.12224
   453.50000   5173.50599
   454.00000   5240.86867
   454.50000   5346.38763
   455.00000   5460.64733
   455.50000   5568.26484
   456.00000   5676.64737
   456.50000   5785.23668
   457.00000   5859.09696
   457.50000   5865.97215
   458.00000   5826.37906
   458.50000   5780.95511
   459.00000   5757.47619
   459.50000   5780.21919
   460.00000   5876.80238
   460.50000   6050.75903
   461.00000   6249.63730
   461.50000   6412.56484
   462.00000   6502.22800
   462.50000   6503.93679
   463.00000   6424.34581
   463.50000   6290.27261
   464.00000   6183.23659
   464.50000   6166.65125
   465.00000   6218.40969
   465.50000   6292.84074
   466.00000   6337.67130
   466.50000   6326.60462
   467.00000   6301.04230
   467.50000   6306.83868
   468.00000   6346.11308
   468.50000   6397.18574
   469.00000   6430.32750
   469.50000   6426.94105
   470.00000   6402.09039
   470.50000   6388.97815
   471.00000   6429.34501
   471.50000   6539.18727
   472.00000   6650.13469
   472.50000   6693.26376
   473.00000   6688.51424
   473.50000   6683.07712
   474.00000   6719.34601
   474.50000   6810.71446
   475.00000   6879.11496
   475.50000   6854.71850
   476.00000   6800.70149
   476.50000   6801.50608
   477.00000   6860.33178
   477.50000   6951.58573
   478.00000   7032.61599
   478.50000   7068.70009
   479.00000   7096.86512
   479.50000   7161.50871
   480.00000   7238.77598
   480.50000   7296.23830
   481.00000   7342.36217
   481.50000   7385.28954
   482.00000   7403.41763
   482.50000   7385.67195
   483.00000   7363.61462
   483.50000   7361.88580
   484.00000   7362.06741
   484.50000   7329.35639
   485.00000   7235.66716
   485.50000   7082.44930
   486.00000   6910.54773
   486.50000   6778.19145
   487.00000   6760.43790
   487.50000   6884.52611
   488.00000   7053.45668
   488.50000   7172.50896
   489.00000   7276.03310
   489.50000   7415.41950
   490.00000   7534.05438
   490.50000   7560.61277
   491.00000   7491.56525
   491.50000   7359.18052
   492.00000   7258.64277
   492.50000   7273.46817
   493.00000   7377.19823
   493.50000   7511.19668
   494.00000   7635.90628
   494.50000   7727.78999
   495.00000   7777.20192
   495.50000   7788.07811
   496.00000   7801.27080
   496.50000   7833.92780
   497.00000   7814.14107
   497.50000   7693.16343
   498.00000   7552.82498
   498.50000   7483.98141
   499.00000   7480.95650
   499.50000   7491.03766
   500.00000   7445.78320
   500.50000   7316.51351
   501.00000   7177.99124
   501.50000   7122.44776
   502.00000   7183.07103
   502.50000   7328.20971
   503.00000   7437.30161
   503.50000   7420.74899
   504.00000   7333.46776
   504.50000   7278.61817
   505.00000   7334.75625
   505.50000   7505.43877
   506.00000   7660.42101
   506.50000   7672.31114
   507.00000   7538.69220
   507.50000   7338.71076
   508.00000   7211.28622
   508.50000   7243.63951
   509.00000   7363.71891
   509.50000   7457.66998
   510.00000   7467.47174
   510.50000   7399.13909
   511.00000   7332.36264
   511.50000   7331.54614
   512.00000   7358.01800
   512.50000   7349.85832
   513.00000   7319.84777
   513.50000   7304.45090
   514.00000   7285.14782
   514.50000   7241.10768
   515.00000   7217.65005
   515.50000   7232.38489
   516.00000   7179.70649
   516.50000   6984.58881
   517.00000   6744.35446
   517.50000   6593.57654
   518.00000   6632.22803
   518.50000   6886.50126
   519.00000   7197.07468
   519.50000   7402.81536
   520.00000   7498.28547
   520.50000   7531.98549
   521.00000   7575.37388
   521.50000   7674.40286
   522.00000   7786.09554
   522.50000   7872.56802
   523.00000   7981.22748
   523.50000   8161.00738
   524.00000   8362.41052
   524.50000   8496.82054
   525.00000   8498.91242
   525.50000   8344.29273
   526.00000   8114.61903
   526.50000   7938.61945
   527.00000   7912.62982
   527.50000   8084.33982
   528.00000   8431.35693
   528.50000   8862.38311
   529.00000   9175.83090
   529.50000   9244.90618
   530.00000   9226.75384
   530.50000   9299.24933
   531.00000   9419.55237
   531.50000   9474.85011
   532.00000   9405.82095
   532.50000   9219.83091
   533.00000   9048.42257
   533.50000   9031.99866
   534.00000   9180.71009
   534.50000   9427.63413
   535.00000   9676.23471
   535.50000   9843.70766
   536.00000   9882.97246
   536.50000   9810.00070
   537.00000   9732.63474
   537.50000   9729.47705
   538.00000   9783.12072
   538.50000   9831.64475
   539.00000   9777.05559
   539.50000   9583.00470
   540.00000   9372.73991
   540.50000   9285.00051
   541.00000   9384.05088
   541.50000   9649.34841
   542.00000   9900.95886
   542.50000   9983.66667
   543.00000   9938.25349
   543.50000   9871.77806
   544.00000   9888.53467
   544.50000  10031.59920
   545.00000  10189.95358
   545.50000  10246.91138
   546.00000  10247.33402
   546.50000  10268.41953
   547.00000  10262.26437
   547.50000  10178.20778
   548.00000  10100.76652
   548.50000  10111.53864
   549.00000  10196.13781
   549.50000  10320.08994
   550.00000  10416.20654
   550.50000  10432.08119
   551.00000  10415.53127
   551.50000  10416.59940
   552.00000  10435.21724
   552.50000  10469.36730
   553.00000  10498.38906
   553.50000  10514.91572
   554.00000  10576.83267
   554.50000  10715.85275
   555.00000  10865.78766
   555.50000  10953.53332
   556.00000  10950.59229
   556.50000  10867.92044
   557.00000  10786.80137
   557.50000  10769.89580
   558.00000  10765.29676
   558.50000  10711.42516
   559.00000  10616.37822
   559.50000  10527.98667
   560.00000  10573.43118
   560.50000  10822.89732
   561.00000  11079.07191
   561.50000  11150.69580
   562.00000  11117.84575
   562.50000  11108.75979
   563.00000  11140.04584
   563.50000  11187.24842
   564.00000  11225.13301
   564.50000  11234.37019
   565.00000  11207.09661
   565.50000  11157.43747
   566.00000  11121.94024
   566.50000  11127.39988
   567.00000  11185.44594
   567.50000  11286.82954
   568.00000  11384.63983
   568.50000  11439.90820
   569.00000  11433.75075
   569.50000  11362.76312
   570.00000  11262.40531
   570.50000  11176.81424
   571.00000  11155.90779
   571.50000  11241.92379
   572.00000  11444.22175
   572.50000  11724.57569
   573.00000  11923.95686
   573.50000  11916.90419
   574.00000  11801.61769
   574.50000  11715.92327
   575.00000  11687.72973
   575.50000  11701.07011
   576.00000  11723.43679
   576.50000  11727.13754
   577.00000  11717.75357
   577.50000  11715.30985
   578.00000  11736.94259
   578.50000  11785.44227
   579.00000  11846.61651
   579.50000  11911.68901
   580.00000  11985.60600
   580.50000  12077.68168
   581.00000  12186.65961
   581.50000  12295.32787
   582.00000  12380.75899
   582.50000  12431.12374
   583.00000  12453.07033
   583.50000  12454.90308
   584.00000  12435.93215
   584.50000  12391.06224
   585.00000  12325.73300
   585.50000  12269.60064
   586.00000  12255.07382
   586.50000  12280.24694
   587.00000  12292.85394
   587.50000  12213.06178
   588.00000  11996.49590
   588.50000  11689.08220
   589.00000  11416.31006
   589.50000  11303.93757
   590.00000  11399.33193
   590.50000  11640.76587
   591.00000  11894.26105
   591.50000  12058.66278
   592.00000  12120.47826
   592.50000  12135.78064
   593.00000  12173.06438
   593.50000  12254.19432
   594.00000  12347.22856
   594.50000  12411.58168
   595.00000  12443.12059
   595.50000  12470.02619
   596.00000  12523.39617
   596.50000  12605.96127
   597.00000  12683.89796
   597.50000  12722.34144
   598.00000  12714.17691
   598.50000  12681.54421
   599.00000  12659.06987
   599.50000  12662.08660
   600.00000  12680.20355
   600.50000  12697.19350
   601.00000  12708.35324
   601.50000  12727.66575
   602.00000  12775.20741
   602.50000  12858.13978
   603.00000  12962.78420
   603.50000  13066.63584
   604.00000  13151.50323
   604.50000  13208.35840
   605.00000  13238.43045
   605.50000  13245.41338
   606.00000  13236.54501
   606.50000  13226.81851
   607.00000  13232.76599
   607.50000  13262.37987
   608.00000  13306.02190
   608.50000  13339.03325
   609.00000  13339.23049
   609.50000  13306.04202
   610.00000  13261.39210
   610.50000  13230.35488
   611.00000  13219.62832
   611.50000  13208.93681
   612.00000  13167.82575
   612.50000  13085.19592
   613.00000  12981.90887
   613.50000  12894.04162
   614.00000  12846.01927
   614.50000  12833.23957
   615.00000  12828.04949
   615.50000  12810.83491
   616.00000  12787.28170
   616.50000  12779.41451
   617.00000  12802.49330
   617.50000  12847.46717
   618.00000  12887.30834
   618.50000  12901.56445
   619.00000  12895.05011
   619.50000  12889.00714
   620.00000  12899.99225
   620.50000  12922.94401
   621.00000  12931.82173
   621.50000  12905.95718
   622.00000  12846.54226
   622.50000  12772.79139
   623.00000  12708.14876
   623.50000  12657.46518
   624.00000  12608.46622
   624.50000  12552.27364
   625.00000  12495.02844
   625.50000  12458.64640
   626.00000  12462.80946
   626.50000  12505.78952
   627.00000  12564.56711
   627.50000  12613.34262
   628.00000  12645.38672
   628.50000  12675.87555
   629.00000  12724.19341
   629.50000  12796.52479
   630.00000  12875.22268
   630.50000  12931.02964
   631.00000  12952.25495
   631.50000  12951.62354
   632.00000  12961.99934
   632.50000  13016.15644
   633.00000  13115.81248
   633.50000  13233.08426
   634.00000  13327.45817
   634.50000  13371.81761
   635.00000  13376.71913
   635.50000  13380.53976
   636.00000  13423.52101
   636.50000  13519.11539
   637.00000  13640.69330
   637.50000  13744.15173
   638.00000  13797.49117
   638.50000  13801.43795
   639.00000  13787.72322
   639.50000  13790.13914
   640.00000  13819.96127
   640.50000  13862.23820
   641.00000  13893.39511
   641.50000  13900.97372
   642.00000  13894.78860
   642.50000  13896.74252
   643.00000  13919.66089
   643.50000  13960.48417
   644.00000  14003.84772
   644.50000  14034.07962
   645.00000  14046.22832
   645.50000  14044.42159
   646.00000  14033.45642
   646.50000  14013.80730
   647.00000  13985.18132
   647.50000  13949.85398
   648.00000  13917.42413
   648.50000  13901.90844
   649.00000  13912.80112
   649.50000  13948.40781
   650.00000  13997.08579
   650.50000  14044.84954
   651.00000  14081.93821
   651.50000  14114.27166
   652.00000  14156.54918
   652.50000  14216.98616
   653.00000  14288.15137
   653.50000  14343.11136
   654.00000  14350.43731
   654.50000  14296.45749
   655.00000  14203.49351
   655.50000  14113.88919
   656.00000  14068.84778
   656.50000  14088.59402
   657.00000  14157.65956
   657.50000  14247.77368
   658.00000  14336.41921
   658.50000  14413.88561
   659.00000  14482.82520
   659.50000  14547.25115
   660.00000  14605.02751
   660.50000  14649.97304
   661.00000  14678.47263
   661.50000  14689.23350
   662.00000  14683.76352
   662.50000  14666.57231
   663.00000  14644.15314
   663.50000  14625.47361
   664.00000  14616.54998
   664.50000  14615.88861
   665.00000  14617.54245
   665.50000  14614.33461
   666.00000  14608.38614
   666.50000  14612.82480
   667.00000  14637.12265
   667.50000  14680.22398
   668.00000  14725.78074
   668.50000  14750.19414
   669.00000  14745.37593
   669.50000  14724.23533
   670.00000  14711.99841
   670.50000  14727.37317
   671.00000  14767.45025
   671.50000  14810.37677
   672.00000  14833.74513
   672.50000  14833.08988
   673.00000  14821.90318
   673.50000  14818.86858
   674.00000  14831.20071
   674.50000  14848.95227
   675.00000  14857.35890
   675.50000  14850.41754
   676.00000  14837.47587
   676.50000  14835.93640
   677.00000  14858.15301
   677.50000  14903.10047
   678.00000  14958.00145
   678.50000  15008.94828
   679.00000  15045.89696
   679.50000  15068.32146
   680.00000  15082.12051
   680.50000  15095.06263
   681.00000  15120.94404
   681.50000  15169.85227
   682.00000  15246.66196
   682.50000  15348.41223
   683.00000  15452.04960
   683.50000  15532.85445
   684.00000  15570.88612
   684.50000  15556.14411
   685.00000  15503.81003
   685.50000  15434.45820
   686.00000  15366.26424
   686.50000  15312.14040
   687.00000  15274.17206
   687.50000  15248.61240
   688.00000  15230.95192
   688.50000  15220.00693
   689.00000  15215.63368
   689.50000  15223.34483
   690.00000  15249.46254
   690.50000  15291.92231
   691.00000  15338.24235
   691.50000  15369.52883
   692.00000  15369.35355
   692.50000  15333.22786
   693.00000  15275.10194
   693.50000  15213.72556
   694.00000  15163.68559
   694.50000  15132.32883
   695.00000  15116.65830
   695.50000  15112.14844
   696.00000  15114.74089
   696.50000  15118.88353
   697.00000  15116.52320
   697.50000  15100.74681
   698.00000  15069.05027
   698.50000  15025.37614
   699.00000  14982.25377
   699.50000  14949.09745
   700.00000  14928.90755
   700.50000  14920.78547
   701.00000  14918.46844
   701.50000  14919.33330
   702.00000  14924.35577
   702.50000  14933.62557
   703.00000  14947.86599
   703.50000  14966.45384
   704.00000  14990.18109
   704.50000  15021.63801
   705.00000  15058.30039
   705.50000  15094.21527
   706.00000  15119.50170
   706.50000  15124.87366
   707.00000  15110.30240
   707.50000  15080.66866
   708.00000  15044.27353
   708.50000  15008.36878
   709.00000  14976.65228
   709.50000  14950.26185
   710.00000  14929.48109
   710.50000  14914.40367
   711.00000  14902.01606
   711.50000  14888.60064
   712.00000  14870.17000
   712.50000  14845.08836
   713.00000  14821.17327
   713.50000  14809.19114
   714.00000  14819.92484
   714.50000  14859.81831
   715.00000  14916.94017
   715.50000  14974.66229
   716.00000  15016.17267
   716.50000  15026.76871
   717.00000  15003.25190
   717.50000  14944.73945
   718.00000  14850.05719
   718.50000  14724.12935
   719.00000  14594.40083
   719.50000  14494.07543
   720.00000  14457.31873
   720.50000  14506.76201
   721.00000  14619.36587
   721.50000  14760.24300
   722.00000  14893.81389
   722.50000  14990.56339
   723.00000  15046.93605
   723.50000  15066.84205
   724.00000  15054.18872
   724.50000  15014.63042
   725.00000  14959.92438
   725.50000  14903.34848
   726.00000  14858.13381
   726.50000  14834.70692
   727.00000  14832.06778
   727.50000  14846.21521
   728.00000  14872.87175
   728.50000  14907.34313
   729.00000  14945.60687
   729.50000  14983.95100
   730.00000  15019.31109
   730.50000  15049.77652
   731.00000  15076.94859
   731.50000  15103.27439
   732.00000  15130.66041
   732.50000  15160.11977
   733.00000  15190.30778
   733.50000  15219.13087
   734.00000  15244.57418
   734.50000  15265.18057
   735.00000  15281.22188
   735.50000  15293.85897
   736.00000  15304.59448
   736.50000  15314.87869
   737.00000  15326.23642
   737.50000  15340.56427
   738.00000  15359.36778
   738.50000  15384.01509
   739.00000  15413.56889
   739.50000  15446.21048
   740.00000  15479.76160
   740.50000  15512.50645
   741.00000  15545.70752
   741.50000  15581.24191
   742.00000  15620.77838
   742.50000  15665.20742
   743.00000  15711.91820
   743.50000  15757.23818
   744.00000  15797.77018
   744.50000  15831.10687
   745.00000  15858.50466
   745.50000  15882.42379
   746.00000  15905.23104
   746.50000  15928.26921
   747.00000  15950.02092
   747.50000  15967.51748
   748.00000  15978.18375
   748.50000  15981.30298
   749.00000  15982.97635
   749.50000  15991.33277
   750.00000  16014.55165
   750.50000  16059.06463
   751.00000  16122.99956
   751.50000  16202.52008
   752.00000  16293.72184
   752.50000  16390.97350
   753.00000  16483.34577
   753.50000  16558.30588
   754.00000  16603.41796
   754.50000  16614.13892
   755.00000  16616.20491
   755.50000  16642.96560
   756.00000  16728.39522
   756.50000  16887.83653
   757.00000  17064.56782
   757.50000  17183.40682
   758.00000  17168.66751
   758.50000  16975.07049
   759.00000  16678.00549
   759.50000  16382.92200
   760.00000  16195.73713
   760.50000  16189.86077
   761.00000  16307.78209
   761.50000  16459.05294
   762.00000  16552.47574
   762.50000  16521.69499
   763.00000  16399.15509
   763.50000  16242.29577
   764.00000  16108.91267
   764.50000  16041.36038
   765.00000  16020.11833
   765.50000  16010.03094
   766.00000  15975.77713
   766.50000  15895.12319
   767.00000  15798.88329
   767.50000  15731.09015
   768.00000  15735.49388
   768.50000  15840.84396
   769.00000  16012.96155
   769.50000  16201.95766
   770.00000  16358.13797
   770.50000  16444.12987
   771.00000  16472.52129
   771.50000  16468.14881
   772.00000  16455.95802
   772.50000  16456.30965
   773.00000  16471.42107
   773.50000  16499.12657
   774.00000  16537.13600
   774.50000  16582.24762
   775.00000  16627.96823
   775.50000  16666.94047
   776.00000  16691.66901
   776.50000  16697.67574
   777.00000  16691.64176
   777.50000  16682.94818
   778.00000  16680.97051
   778.50000  16692.49677
   779.00000  16713.41668
   779.50000  16736.56115
   780.00000  16755.11638
   780.50000  16763.74729
   781.00000  16763.64741
   781.50000  16757.57141
   782.00000  16748.55082
   782.50000  16739.36999
   783.00000  16729.38324
   783.50000  16717.85319
   784.00000  16703.33417
   784.50000  16684.25657
   785.00000  16659.82926
   785.50000  16629.09348
   786.00000  16591.20859
   786.50000  16546.05552
   787.00000  16495.50627
   787.50000  16442.14713
   788.00000  16388.78245
   788.50000  16337.55866
   789.00000  16288.60099
   789.50000  16241.09666
   790.00000  16194.06426
   790.50000  16146.92899
   791.00000  16102.37459
   791.50000  16064.53295
   792.00000  16037.65265
   792.50000  16025.03589
   793.00000  16025.55449
   793.50000  16036.57152
   794.00000  16054.84970
   794.50000  16077.75279
   795.00000  16105.83812
   795.50000  16139.99987
   796.00000  16180.93608
   796.50000  16228.36938
   797.00000  16276.47585
   797.50000  16317.87294
   798.00000  16346.09266
   798.50000  16356.65600
   799.00000  16355.48769
   799.50000  16350.87217
   800.00000  16189.02186
   800.50000  16204.86360
   801.00000  16237.63297
   801.50000  16278.81931
   802.00000  16319.90604
   802.50000  16354.27816
   803.00000  16383.01592
   803.50000  16409.15840
   804.00000  16435.75224
   804.50000  16464.17078
   805.00000  16489.15538
   805.50000  16503.75134
   806.00000  16500.98670
   806.50000  16474.78436
   807.00000  16422.56378
   807.50000  16342.69785
   808.00000  16233.49356
   808.50000  16099.39110
   809.00000  15969.46802
   809.50000  15878.92560
   810.00000  15863.14518
   810.50000  15944.52920
   811.00000  16093.61126
   811.50000  16267.81621
   812.00000  16424.49484
   812.50000  16527.46533
   813.00000  16566.96587
   813.50000  16539.83831
   814.00000  16442.88586
   814.50000  16279.75829
   815.00000  16081.45443
   815.50000  15885.86512
   816.00000  15731.00559
   816.50000  15647.33066
   817.00000  15634.83054
   817.50000  15685.89481
   818.00000  15792.86277
   818.50000  15944.27345
   819.00000  16113.39355
   819.50000  16269.66980
   820.00000  16382.44288
   820.50000  16429.56631
   821.00000  16423.28969
   821.50000  16384.45929
   822.00000  16334.00390
   822.50000  16293.17137
   823.00000  16284.30252
   823.50000  16330.10812
   824.00000  16453.30657
   824.50000  16662.93679
   825.00000  16913.07261
   825.50000  17143.92511
   826.00000  17295.51283
   826.50000  17324.40786
   827.00000  17253.64316
   827.50000  17123.01101
   828.00000  16972.38437
   828.50000  16833.85559
   829.00000  16708.17792
   829.50000  16588.23554
   830.00000  16466.89542
   830.50000  16340.00023
   831.00000  16215.37750
   831.50000  16103.90203
   832.00000  16016.45882
   832.50000  15960.38433
   833.00000  15928.94899
   833.50000  15911.76412
   834.00000  15898.49594
   834.50000  15882.35302
   835.00000  15871.07720
   835.50000  15876.03239
   836.00000  15908.59366
   836.50000  15975.88190
   837.00000  16067.75509
   837.50000  16169.74434
   838.00000  16267.34611
   838.50000  16348.88321
   839.00000  16414.05330
   839.50000  16465.45002
   840.00000  16505.68938
   840.50000  16537.13585
   841.00000  16561.20846
   841.50000  16579.13608
   842.00000  16592.08595
   842.50000  16601.93873
   843.00000  16613.10043
   843.50000  16630.65044
   844.00000  16659.66405
   844.50000  16702.26604
   845.00000  16748.58370
   845.50000  16785.77109
   846.00000  16800.93570
   846.50000  16784.93533
   847.00000  16743.75459
   847.50000  16687.25881
   848.00000  16625.23918
   848.50000  16565.46069
   849.00000  16507.08116
   849.50000  16447.15581
   850.00000  16382.73291
   850.50000  16310.39729
   851.00000  16224.99660
   851.50000  16120.90945
   852.00000  15992.51755
   852.50000  15839.19005
   853.00000  15680.27583
   853.50000  15540.17556
   854.00000  15443.36352
   854.50000  15410.35814
   855.00000  15445.84431
   855.50000  15550.53264
   856.00000  15725.08590
   856.50000  15963.00978
   857.00000  16228.81585
   857.50000  16479.71663
   858.00000  16672.82469
   858.50000  16779.46992
   859.00000  16828.10257
   859.50000  16861.55689
   860.00000  16922.78351
   860.50000  17040.11958
   861.00000  17183.24505
   861.50000  17307.12123
   862.00000  17366.52213
   862.50000  17328.28541
   863.00000  17207.51017
   863.50000  17031.48039
   864.00000  16827.52700
   864.50000  16622.09985
   865.00000  16438.02906
   865.50000  16297.20210
   866.00000  16221.59013
   866.50000  16226.40482
   867.00000  16299.48716
   867.50000  16421.86506
   868.00000  16574.50582
   868.50000  16740.24722
   869.00000  16909.61664
   869.50000  17075.00300
   870.00000  17228.79444
   870.50000  17363.59514
   871.00000  17472.71035
   871.50000  17549.63046
   872.00000  17587.83101
   872.50000  17585.08775
   873.00000  17556.17376
   873.50000  17520.16584
   874.00000  17496.23485
   874.50000  17499.13652
   875.00000  17525.93137
   875.50000  17569.24252
   876.00000  17621.69299
   876.50000  17674.34309
   877.00000  17712.14707
   877.50000  17718.46056
   878.00000  17676.61806
   878.50000  17577.39327
   879.00000  17441.58171
   879.50000  17297.52874
   880.00000  17173.61062
   880.50000  17093.22148
   881.00000  17059.50932
   881.50000  17070.49233
   882.00000  17124.21778
   882.50000  17215.93713
   883.00000  17329.70270
   883.50000  17446.70224
   884.00000  17548.11474
   884.50000  17619.62054
   885.00000  17665.10450
   885.50000  17693.04340
   886.00000  17711.93329
   886.50000  17728.45416
   887.00000  17742.10890
   887.50000  17750.57897
   888.00000  17751.57464
   888.50000  17744.87890
   889.00000  17738.81194
   889.50000  17743.75878
   890.00000  17770.21312
   890.50000  17823.40048
   891.00000  17887.63558
   891.50000  17941.95148
   892.00000  17965.33416
   892.50000  17943.24081
   893.00000  17887.35494
   893.50000  17815.86061
   894.00000  17747.03412
   894.50000  17694.97465
   895.00000  17656.96545
   895.50000  17626.09521
   896.00000  17595.41993
   896.50000  17556.72560
   897.00000  17496.72468
   897.50000  17400.84412
   898.00000  17254.44404
   898.50000  17054.87400
   899.00000  16847.48867
   899.50000  16689.74461
   900.00000  16639.19166
   900.50000  16738.52424
   901.00000  16970.39273
   901.50000  17302.35686
   902.00000  17701.86931
   902.50000  18134.00933
   903.00000  18554.24096
   903.50000  18915.62601
   904.00000  19171.08780
   904.50000  19282.37498
   905.00000  19247.07949
   905.50000  19071.71025
   906.00000  18762.82585
   906.50000  18338.12094
   907.00000  17859.96016
   907.50000  17402.04908
   908.00000  17038.20363
   908.50000  16824.01203
   909.00000  16741.37395
   909.50000  16753.73822
   910.00000  16824.45533
   910.50000  16917.30106
   911.00000  16998.11934
   911.50000  17033.16826
   912.00000  16988.64939
   912.50000  16841.76261
   913.00000  16613.74378
   913.50000  16336.97755
   914.00000  16043.88471
   914.50000  15764.06470
   915.00000  15515.34255
   915.50000  15312.68658
   916.00000  15171.06253
   916.50000  15102.74564
   917.00000  15108.84049
   917.50000  15187.72778
   918.00000  15337.76681
   918.50000  15551.90780
   919.00000  15801.55823
   919.50000  16052.70493
   920.00000  16271.20766
   920.50000  16431.03927
   921.00000  16538.83020
   921.50000  16609.31571
   922.00000  16657.35154
   922.50000  16692.36169
   923.00000  16702.29368
   923.50000  16669.63432
   924.00000  16576.85027
   924.50000  16425.08450
   925.00000  16290.53928
   925.50000  16268.31618
   926.00000  16453.72223
   926.50000  16901.29751
   927.00000  17501.72088
   927.50000  18104.41781
   928.00000  18558.48853
   928.50000  18744.19339
   929.00000  18667.74045
   929.50000  18366.90696
   930.00000  17879.49886
   930.50000  17257.44172
   931.00000  16608.54303
   931.50000  16054.89497
   932.00000  15718.76259
   932.50000  15671.80059
   933.00000  15781.73483
   933.50000  15865.00814
   934.00000  15737.66949
   934.50000  15278.87704
   935.00000  14621.55356
   935.50000  13962.40651
   936.00000  13498.63629
   936.50000  13385.48070
   937.00000  13609.02527
   937.50000  14112.87738
   938.00000  14840.61287
   938.50000  15717.01260
   939.00000  16592.46574
   939.50000  17298.38480
   940.00000  17665.84135
   940.50000  17581.70666
   941.00000  17157.34800
   941.50000  16560.49888
   942.00000  15959.32248
   942.50000  15492.89081
   943.00000  15182.91208
   943.50000  15021.66009
   944.00000  15001.40981
   944.50000  15106.41686
   945.00000  15288.76765
   945.50000  15492.49020
   946.00000  15661.42135
   946.50000  15756.26135
   947.00000  15805.19308
   947.50000  15853.42301
   948.00000  15946.27141
   948.50000  16111.53599
   949.00000  16306.78157
   949.50000  16471.84657
   950.00000  16546.51545
   950.50000  16494.97026
   951.00000  16379.88589
   951.50000  16288.69252
   952.00000  16309.02251
   952.50000  16498.65715
   953.00000  16795.42291
   953.50000  17106.93031
   954.00000  17340.65053
   954.50000  17425.74376
   955.00000  17379.03755
   955.50000  17239.33775
   956.00000  17045.49520
   956.50000  16832.29858
   957.00000  16617.69569
   957.50000  16415.52383
   958.00000  16239.59408
   958.50000  16100.47588
   959.00000  15995.50646
   959.50000  15918.72507
   960.00000  15864.17685
   960.50000  15824.90019
   961.00000  15790.17938
   961.50000  15748.29952
   962.00000  15687.55820
   962.50000  15599.80802
   963.00000  15491.20949
   963.50000  15371.62982
   964.00000  15250.86441
   964.50000  15142.31574
   965.00000  15073.45413
   965.50000  15075.39729
   966.00000  15179.29021
   966.50000  15400.11264
   967.00000  15688.20155
   967.50000  15977.48889
   968.00000  16201.80694
   968.50000  16313.63920
   969.00000  16340.48746
   969.50000  16328.75510
   970.00000  16324.86716
   970.50000  16362.15465
   971.00000  16420.96998
   971.50000  16468.36565
   972.00000  16471.34488
   972.50000  16406.20124
   973.00000  16286.70631
   973.50000  16136.08400
   974.00000  15977.56874
   974.50000  15831.99570
   975.00000  15710.16905
   975.50000  15620.48415
   976.00000  15571.29740
   976.50000  15567.55673
   977.00000  15600.24890
   977.50000  15656.96931
   978.00000  15725.17541
   978.50000  15794.75605
   979.00000  15865.09394
   979.50000  15937.95508
   980.00000  16015.10910
   980.50000  16097.40823
   981.00000  16181.88911
   981.50000  16264.67918
   982.00000  16341.87920
   982.50000  16408.94163
   983.00000  16458.80358
   983.50000  16483.74681
   984.00000  16475.99971
   984.50000  16432.92701
   985.00000  16372.14790
   985.50000  16316.49365
   986.00000  16288.80408
   986.50000  16303.53141
   987.00000  16341.55553
   987.50000  16375.29391
   988.00000  16377.10808
   988.50000  16329.11897
   989.00000  16252.74951
   989.50000  16179.32932
   990.00000  16140.19447
   990.50000  16157.70661
   991.00000  16218.00819
   991.50000  16298.10967
   992.00000  16374.95595
   992.50000  16430.88661
   993.00000  16469.71496
   993.50000  16500.72780
   994.00000  16533.17350
   994.50000  16573.72643
   995.00000  16618.56508
   995.50000  16661.30317
   996.00000  16695.46516
   996.50000  16716.79748
   997.00000  16729.88667
   997.50000  16741.50823
   998.00000  16758.43223
   998.50000  16785.87275
   999.00000  16822.61999
   999.50000  16865.83317
  1000.00000  16912.64658
  1000.50000  16959.19151
  1001.00000  16997.29335
  1001.50000  17017.70530
  1002.00000  17011.16208
  1002.50000  16972.22339
  1003.00000  16910.87702
  1003.50000  16840.88175
  1004.00000  16776.13938
  1004.50000  16728.36503
  1005.00000  16700.82066
  1005.50000  16694.63518
  1006.00000  16710.95898
  1006.50000  16748.82237
  1007.00000  16798.87610
  1007.50000  16849.62793
  1008.00000  16889.56269
  1008.50000  16909.61692
  1009.00000  16910.49597
  1009.50000  16895.32555
  1010.00000  16867.27632
  1010.50000  16830.18386
  1011.00000  16790.62396
  1011.50000  16755.92221
  1012.00000  16733.36052
  1012.50000  16726.97451
  1013.00000  16727.75875
  1013.50000  16723.40669
  1014.00000  16701.54858
  1014.50000  16654.74928
  1015.00000  16595.15172
  1015.50000  16539.86723
  1016.00000  16506.04086
  1016.50000  16506.23342
  1017.00000  16534.74417
  1017.50000  16581.27755
  1018.00000  16635.51770
  1018.50000  16687.38219
  1019.00000  16727.72593
  1019.50000  16747.65951
  1020.00000  16738.31517
  1020.50000  16695.73744
  1021.00000  16636.08275
  1021.50000  16580.53238
  1022.00000  16550.28960
  1022.50000  16560.20942
  1023.00000  16599.54583
  1023.50000  16651.09643
  1024.00000  16697.62519
  1024.50000  16725.61333
  1025.00000  16736.46794
  1025.50000  16735.31430
  1026.00000  16727.32697
  1026.50000  16717.90718
  1027.00000  16713.52971
  1027.50000  16720.87893
  1028.00000  16746.69162
  1028.50000  16793.85345
  1029.00000  16849.79132
  1029.50000  16898.01999
  1030.00000  16922.02212
  1030.50000  16979.34420
  1031.00000  16958.11566
  1031.50000  16927.78283
  1032.00000  16894.08918
  1032.50000  16862.63100
  1033.00000  16839.11445
  1033.50000  16829.15767
  1034.00000  16838.42928
  1034.50000  16869.53514
  1035.00000  16912.90440
  1035.50000  16955.93055
  1036.00000  16985.94297
  1036.50000  16993.98186
  1037.00000  16985.97888
  1037.50000  16971.61608
  1038.00000  16960.57429
  1038.50000  16960.46283
  1039.00000  16970.60041
  1039.50000  16988.25205
  1040.00000  17010.61764
  1040.50000  17035.29060
  1041.00000  17061.31638
  1041.50000  17088.15788
  1042.00000  17115.23700
  1042.50000  17141.41499
  1043.00000  17163.39163
  1043.50000  17177.26033
  1044.00000  17179.10697
  1044.50000  17166.99218
  1045.00000  17146.68502
  1045.50000  17125.88962
  1046.00000  17112.32486
  1046.50000  17111.55784
  1047.00000  17120.25527
  1047.50000  17132.92894
  1048.00000  17144.01987
  1048.50000  17149.12416
  1049.00000  17148.41425
  1049.50000  17143.14924
  1050.00000  17134.65103
  1050.50000  17123.98228
  1051.00000  17111.50259
  1051.50000  17097.35044
  1052.00000  17081.70500
  1052.50000  17065.27029
  1053.00000  17051.27481
  1053.50000  17043.49846
  1054.00000  17045.74846
  1054.50000  17059.77750
  1055.00000  17079.19156
  1055.50000  17095.50050
  1056.00000  17100.21831
  1056.50000  17087.49593
  1057.00000  17062.11060
  1057.50000  17031.54474
  1058.00000  17003.29491
  1058.50000  16983.47184
  1059.00000  16972.69651
  1059.50000  16970.16942
  1060.00000  16975.13013
  1060.50000  16986.65413
  1061.00000  17003.20500
  1061.50000  17023.14167
  1062.00000  17044.77924
  1062.50000  16988.13877
  1063.00000  16987.18785
  1063.50000  16986.22852
  1064.00000  16985.28118
  1064.50000  16984.32543
  1065.00000  16983.36129
  1065.50000  16982.40917
  1066.00000  16981.46912
  1066.50000  16980.52071
  1067.00000  16979.56393
  1067.50000  16978.59880
  1068.00000  16977.64579
  1068.50000  16976.70492
  1069.00000  16975.73524
  1069.50000  16974.77773
  1070.00000  16973.83239
  1070.50000  16972.87877
  1071.00000  16971.91683
  1071.50000  16970.96715
  1072.00000  16970.00918
  1072.50000  16969.06349
  1073.00000  16968.10954
  1073.50000  16967.14732
  1074.00000  16966.19744
  1074.50000  16965.23930
  1075.00000  16964.29353
  1075.50000  16963.33953
  1076.00000  16962.37733
  1076.50000  16961.42752
  1077.00000  16960.46951
  1077.50000  16959.50330
  1078.00000  16958.54955
  1078.50000  16957.60829
  1079.00000  16956.63817
  1079.50000  16955.70126
  1080.00000  16954.73551
  1080.50000  16953.78229
  1081.00000  16952.82093
  1081.50000  16951.87214
  1082.00000  16950.91524
  1082.50000  16949.95021
  1083.00000  16948.99781
  1083.50000  16948.05807
  1084.00000  16947.08946
  1084.50000  16946.13353
  1085.00000  16945.19032
  1085.50000  16944.21822
  1086.00000  16943.27966
  1086.50000  16942.31224
  1087.00000  16941.35757
  1087.50000  16940.39486
  1088.00000  16939.44495
  1088.50000  16938.48702
  1089.00000  16937.54191
  1089.50000  16936.58880
  1090.00000  16935.62768
  1090.50000  16934.67945
  1091.00000  16933.72322
  1091.50000  16932.75900
  1092.00000  16931.80773
  1092.50000  16930.84847
  1093.00000  16929.88125
  1093.50000  16928.92700
  1094.00000  16927.98577
  1094.50000  16927.01564
  1095.00000  16926.05854
  1095.50000  16925.11449
  1096.00000  16924.16253
  1096.50000  16923.20266
  1097.00000  16922.23485
  1097.50000  16921.28019
  1098.00000  16920.33867
  1098.50000  16919.36820
  1099.00000  16918.43198
  1099.50000  16917.46683
  1100.00000  16916.51487
  1100.50000  16915.55506
  1101.00000  16914.60851
  1101.50000  16913.63299
  1102.00000  16912.69185
  1102.50000  16911.72178
  1103.00000  16910.76499
  1103.50000  16909.82154
  1104.00000  16908.87029
  1104.50000  16907.91124
  1105.00000  16906.94438
  1105.50000  16905.99093
  1106.00000  16905.05088
  1106.50000  16904.08186
  1107.00000  16903.12628
  1107.50000  16902.18416
  1108.00000  16901.21306
  1108.50000  16900.25544
  1109.00000  16899.31134
  1109.50000  16898.35951
  1110.00000  16897.39997
  1110.50000  16896.43269
  1111.00000  16895.47898
  1111.50000  16894.53889
  1112.00000  16893.56978
  1112.50000  16892.61429
  1113.00000  16891.67245
  1113.50000  16890.70160
  1114.00000  16889.74442
  1114.50000  16888.80093
  1115.00000  16887.84980
  1115.50000  16886.89101
  1116.00000  16885.92458
  1116.50000  16884.97190
  1117.00000  16884.01159
  1117.50000  16883.06507
  1118.00000  16882.11095
  1118.50000  16881.14921
  1119.00000  16880.20131
  1119.50000  16879.24583
  1120.00000  16878.28275
  1120.50000  16877.33357
  1121.00000  16876.37680
  1121.50000  16875.41247
  1122.00000  16874.46207
  1122.50000  16873.50413
  1123.00000  16872.56014
  1123.50000  16871.60864
  1124.00000  16870.64960
  1124.50000  16869.68302
  1125.00000  16868.73047
  1125.50000  16867.79199
  1126.00000  16866.82442
  1126.50000  16865.87094
  1127.00000  16864.90997
  1127.50000  16863.96310
  1128.00000  16863.00876
  1128.50000  16862.04695
  1129.00000  16861.09931
  1129.50000  16860.14420
  1130.00000  16859.18164
  1130.50000  16858.23330
  1131.00000  16857.27751
  1131.50000  16856.31429
  1132.00000  16855.36533
  1132.50000  16854.40896
  1133.00000  16853.46687
  1133.50000  16852.49568
  1134.00000  16851.53879
  1134.50000  16850.59624
  1135.00000  16849.64632
  1135.50000  16848.68903
  1136.00000  16847.72435
  1136.50000  16846.77408
  1137.00000  16845.81644
  1137.50000  16844.87325
  1138.00000  16843.90091
  1138.50000  16842.94302
  1139.00000  16841.99963
  1139.50000  16841.04892
  1140.00000  16840.09088
  1140.50000  16839.12553
  1141.00000  16838.17471
  1141.50000  16837.21660
  1142.00000  16836.27308
  1142.50000  16835.32227
  1143.00000  16834.36417
  1143.50000  16833.39879
  1144.00000  16832.44806
  1144.50000  16831.49006
  1145.00000  16830.54675
  1145.50000  16829.57423
  1146.00000  16828.63838
  1146.50000  16827.67333
  1147.00000  16826.72302
  1147.50000  16825.76549
  1148.00000  16824.80072
  1148.50000  16823.85074
  1149.00000  16822.89356
  1149.50000  16821.95120
  1150.00000  16820.97961
  1150.50000  16820.04492
  1151.00000  16819.08100
  1151.50000  16818.13197
  1152.00000  16817.17577
  1152.50000  16816.21238
  1153.00000  16815.26395
  1153.50000  16814.30836
  1154.00000  16813.34561
  1154.50000  16812.39785
  1155.00000  16811.44296
  1155.50000  16810.48093
  1156.00000  16809.53393
  1156.50000  16808.57983
  1157.00000  16807.61861
  1157.50000  16806.65028
  1158.00000  16805.69704
  1158.50000  16804.73670
  1159.00000  16803.79149
  1159.50000  16802.83921
  1160.00000  16801.87985
  1160.50000  16800.93566
  1161.00000  16799.96216
  1161.50000  16799.00386
  1162.00000  16798.06077
  1162.50000  16797.08837
  1163.00000  16796.15350
  1163.50000  16795.18931
  1164.00000  16794.24040
  1164.50000  16793.28447
  1165.00000  16792.32152
  1165.50000  16791.35157
  1166.00000  16790.39694
  1166.50000  16789.45769
  1167.00000  16788.48907
  1167.50000  16787.53585
  1168.00000  16786.57565
  1168.50000  16785.63087
  1169.00000  16784.65672
  1169.50000  16783.69802
  1170.00000  16782.75477
  1170.50000  16781.80460
  1171.00000  16780.84748
  1171.50000  16779.88343
  1172.00000  16778.91243
  1172.50000  16777.95698
  1173.00000  16776.99460
  1173.50000  16776.04779
  1174.00000  16775.09409
  1174.50000  16774.13348
  1175.00000  16773.16598
  1175.50000  16772.21410
  1176.00000  16771.25535
  1176.50000  16770.28971
  1177.00000  16769.33976
  1177.50000  16768.38294
  1178.00000  16767.41926
  1178.50000  16766.47130
  1179.00000  16765.51651
  1179.50000  16764.55486
  1180.00000  16763.58638
  1180.50000  16762.63368
  1181.00000  16761.67416
  1181.50000  16760.70781
  1182.00000  16759.75730
  1182.50000  16758.79998
  1183.00000  16757.83587
  1183.50000  16756.86493
  1184.00000  16755.90990
  1184.50000  16754.94808
  1185.00000  16753.97946
  1185.50000  16753.02680
  1186.00000  16752.06736
  1186.50000  16751.10116
  1187.00000  16750.15095
  1187.50000  16749.17122
  1188.00000  16748.23027
  1188.50000  16747.25982
  1189.00000  16746.30541
  1189.50000  16745.34426
  1190.00000  16744.37640
  1190.50000  16743.40179
  1191.00000  16742.44330
  1191.50000  16741.47809
  1192.00000  16740.52903
  1192.50000  16739.55041
  1193.00000  16738.58795
  1193.50000  16737.61881
  1194.00000  16736.66587
  1194.50000  16735.70625
  1195.00000  16734.73996
  1195.50000  16733.76700
  1196.00000  16732.81029
  1196.50000  16731.84694
  1197.00000  16730.87693
  1197.50000  16729.92323
  1198.00000  16728.93993
  1198.50000  16727.97295
  1199.00000  16727.02232
  1199.50000  16726.04209
  1200.00000  16725.07822
  1200.50000  16724.10775
  1201.00000  16723.15368
  1201.50000  16722.19302
  1202.00000  16721.22576
  1202.50000  16720.25191
  1203.00000  16719.27147
  1203.50000  16718.30749
  1204.00000  16717.33695
  1204.50000  16716.38292
  1205.00000  16715.39924
  1205.50000  16714.43209
  1206.00000  16713.45837
  1206.50000  16712.50124
  1207.00000  16711.53758
  1207.50000  16710.56737
  1208.00000  16709.59062
  1208.50000  16708.60733
  1209.00000  16707.64069
  1209.50000  16706.66753
  1210.00000  16705.71105
  1210.50000  16704.72486
  1211.00000  16703.75538
  1211.50000  16702.77939
  1212.00000  16701.82014
  1212.50000  16700.83115
  1213.00000  16699.85893
  1213.50000  16698.88023
  1214.00000  16697.91833
  1214.50000  16696.94996
  1215.00000  16695.97513
  1215.50000  16694.99385
  1216.00000  16694.02941
  1216.50000  16693.03521
  1217.00000  16692.05787
  1217.50000  16691.09744
  1218.00000  16690.10724
  1218.50000  16689.13395
  1219.00000  16688.15425
  1219.50000  16687.16812
  1220.00000  16686.19896
  1220.50000  16685.22339
  1221.00000  16684.24142
  1221.50000  16683.25305
  1222.00000  16682.28170
  1222.50000  16681.30397
  1223.00000  16680.31985
  1223.50000  16679.32935
  1224.00000  16678.35593
  1224.50000  16677.37615
  1225.00000  16676.39001
  1225.50000  16675.42099
  1226.00000  16674.42211
  1226.50000  16673.44040
  1227.00000  16672.45234
  1227.50000  16671.48145
  1228.00000  16670.50425
  1228.50000  16669.49717
  1229.00000  16668.53086
  1229.50000  16667.53468
  1230.00000  16666.55574
  1230.50000  16665.57051
  1231.00000  16664.57897
  1231.50000  16663.58112
  1232.00000  16662.60058
  1232.50000  16661.61375
  1233.00000  16660.62064
  1233.50000  16659.64488
  1234.00000  16658.63919
  1234.50000  16657.65089
  1235.00000  16656.65632
  1235.50000  16655.67916
  1236.00000  16654.67206
  1236.50000  16653.68239
  1237.00000  16652.68648
  1237.50000  16651.70804
  1238.00000  16650.72336
  1238.50000  16649.70873
  1239.00000  16648.71158
  1239.50000  16647.73198
  1240.00000  16646.72239
  1240.50000  16645.73034
  1241.00000  16644.73209
  1241.50000  16643.75142
  1242.00000  16642.74075
  1242.50000  16641.74769
  1243.00000  16640.74845
  1243.50000  16639.74301
  1244.00000  16638.75522
  1244.50000  16637.76126
  1245.00000  16636.76113
  1245.50000  16635.75483
  1246.00000  16634.74235
  1246.50000  16633.74760
  1247.00000  16632.74669
  1247.50000  16631.73963
  1248.00000  16630.75034
  1248.50000  16629.75491
  1249.00000  16628.72942
  1249.50000  16627.74566
  1250.00000  16626.73183
  1250.50000  16625.73584
  1251.00000  16624.70975
  1251.50000  16623.70153
  1252.00000  16622.71118
  1252.50000  16621.69072
  1253.00000  16620.68818
  1253.50000  16619.67954
  1254.00000  16618.66480
  1254.50000  16617.66802
  1255.00000  16616.64110
  1255.50000  16615.63214
  1256.00000  16614.61713
  1256.50000  16613.62010
  1257.00000  16612.61703
  1257.50000  16611.58380
  1258.00000  16610.56859
  1258.50000  16609.57147
  1259.00000  16608.54416
  1259.50000  16607.53494
  1260.00000  16606.51969
  1260.50000  16605.49840
  1261.00000  16604.49524
  1261.50000  16603.46188
  1262.00000  16602.44667
  1262.50000  16601.42544
  1263.00000  16600.39819
  1263.50000  16599.38915
  1264.00000  16598.37410
  1264.50000  16597.35306
  1265.00000  16596.32601
  1265.50000  16595.29297
  1266.00000  16594.27819
  1266.50000  16593.25744
  1267.00000  16592.23070
  1267.50000  16591.19798
  1268.00000  16590.18358
  1268.50000  16589.16323
  1269.00000  16588.13692
  1269.50000  16587.10464
  1270.00000  16586.06640
  1270.50000  16585.04656
  1271.00000  16584.02077
  1271.50000  16582.98903
  1272.00000  16581.95136
  1272.50000  16580.90774
  1273.00000  16579.88259
  1273.50000  16578.85151
  1274.00000  16577.81450
  1274.50000  16576.79601
  1275.00000  16575.74717
  1275.50000  16574.71685
  1276.00000  16573.68064
  1276.50000  16572.63852
  1277.00000  16571.61497
  1277.50000  16570.56106
  1278.00000  16569.52572
  1278.50000  16568.48451
  1279.00000  16567.43742
  1279.50000  16566.40896
  1280.00000  16565.37464
  1280.50000  16564.33447
  1281.00000  16563.28841
  1281.50000  16562.23649
  1282.00000  16561.17871
  1282.50000  16560.13965
  1283.00000  16559.09474
  1283.50000  16558.04399
  1284.00000  16557.01200
  1284.50000  16555.94955
  1285.00000  16554.90590
  1285.50000  16553.85642
  1286.00000  16552.80111
  1286.50000  16551.76463
  1287.00000  16550.69768
  1287.50000  16549.64958
  1288.00000  16548.59566
  1288.50000  16547.53594
  1289.00000  16546.47042
  1289.50000  16545.42380
  1290.00000  16544.37140
  1290.50000  16543.31321
  1291.00000  16542.24923
  1291.50000  16541.20420
  1292.00000  16540.12866
  1292.50000  16539.07209
  1293.00000  16538.00976
  1293.50000  16536.94165
  1294.00000  16535.89258
  1294.50000  16534.81295
  1295.00000  16533.75237
  1295.50000  16532.68604
  1296.00000  16531.61395
  1296.50000  16530.56097
  1297.00000  16529.47740
  1297.50000  16528.41294
  1298.00000  16527.34276
  1298.50000  16526.26684
  1299.00000  16525.21010
  1299.50000  16524.12273
  1300.00000  16523.05455
  1300.50000  16521.98066
  1301.00000  16520.90105
  1301.50000  16519.81573
  1302.00000  16518.74966
  1302.50000  16517.67789
  1303.00000  16516.60043
  1303.50000  16515.51728
  1304.00000  16514.42844
  1304.50000  16513.35890
  1305.00000  16512.25868
  1305.50000  16511.17779
  1306.00000  16510.09123
  1306.50000  16508.99899
  1307.00000  16507.92613
  1307.50000  16506.82255
  1308.00000  16505.73838
  1308.50000  16504.64855
  1309.00000  16503.55306
  1309.50000  16502.47702
  1310.00000  16501.37023
  1310.50000  16500.28291
  1311.00000  16499.18995
  1311.50000  16498.09136
  1312.00000  16497.01228
  1312.50000  16495.90242
  1313.00000  16494.81211
  1313.50000  16493.71616
  1314.00000  16492.61461
  1314.50000  16491.50744
  1315.00000  16490.39466
  1315.50000  16489.30146
  1316.00000  16488.20268
  1316.50000  16487.07307
  1317.00000  16485.98832
  1317.50000  16484.87275
  1318.00000  16483.75157
  1318.50000  16482.65007
  1319.00000  16481.54300
  1319.50000  16480.43035
  1320.00000  16479.31212
  1320.50000  16478.21362
  1321.00000  16477.08424
  1321.50000  16475.97461
  1322.00000  16474.85943
  1322.50000  16473.73869
  1323.00000  16472.61239
  1323.50000  16471.48052
  1324.00000  16470.36849
  1324.50000  16469.25091
  1325.00000  16468.12778
  1325.50000  16466.99913
  1326.00000  16465.86493
  1326.50000  16464.75062
  1327.00000  16463.60535
  1327.50000  16462.47999
  1328.00000  16461.34911
  1328.50000  16460.21270
  1329.00000  16459.09625
  1329.50000  16457.94882
  1330.00000  16456.82135
  1330.50000  16455.68839
  1331.00000  16454.54993
  1331.50000  16453.40597
  1332.00000  16452.25649
  1332.50000  16451.12707
  1333.00000  16449.96661
  1333.50000  16448.82621
  1334.00000  16447.68033
  1334.50000  16446.55454
  1335.00000  16445.39770
  1335.50000  16444.23538
  1336.00000  16443.09319
  1336.50000  16441.94554
  1337.00000  16440.79242
  1337.50000  16439.63384
  1338.00000  16438.46979
  1338.50000  16437.32594
  1339.00000  16436.17665
  1339.50000  16434.99623
  1340.00000  16433.83604
  1340.50000  16432.69610
  1341.00000  16431.52503
  1341.50000  16430.34851
  1342.00000  16429.19228
  1342.50000  16428.03062
  1343.00000  16426.86354
  1343.50000  16425.69103
  1344.00000  16424.51309
  1344.50000  16423.35551
  1345.00000  16422.16674
  1345.50000  16420.99833
  1346.00000  16419.82452
  1346.50000  16418.64530
  1347.00000  16417.46068
  1347.50000  16416.29648
  1348.00000  16415.10106
  1348.50000  16413.92607
  1349.00000  16412.71985
  1349.50000  16411.53408
  1350.00000  16410.36882
  1350.50000  16409.17228
  1351.00000  16407.97037
  1351.50000  16406.78898
  1352.00000  16405.60222
  1352.50000  16404.41009
  1353.00000  16403.21260
  1353.50000  16402.00973
  1354.00000  16400.80150
  1354.50000  16399.61387
  1355.00000  16398.39491
  1355.50000  16397.19657
  1356.00000  16395.99288
  1356.50000  16394.78385
  1357.00000  16393.59548
  1357.50000  16392.37577
  1358.00000  16391.15069
  1358.50000  16389.94632
  1359.00000  16388.73662
  1359.50000  16387.52157
  1360.00000  16386.30121
  1360.50000  16385.07552
  1361.00000  16383.87059
  1361.50000  16382.66034
  1362.00000  16381.41869
  1362.50000  16380.19782
  1363.00000  16378.97163
  1363.50000  16377.74014
  1364.00000  16376.52948
  1364.50000  16375.28738
  1365.00000  16374.06614
  1365.50000  16372.81343
  1366.00000  16371.58159
  1366.50000  16370.34446
  1367.00000  16369.10205
  1367.50000  16367.85434
  1368.00000  16366.62756
  1368.50000  16365.39551
  1369.00000  16364.13195
  1369.50000  16362.88936
  1370.00000  16361.64148
  1370.50000  16360.38834
  1371.00000  16359.12993
  1371.50000  16357.89253
  1372.00000  16356.62358
  1372.50000  16355.37568
  1373.00000  16354.12252
  1373.50000  16352.86410
  1374.00000  16351.60043
  1374.50000  16350.33151
  1375.00000  16349.05735
  1375.50000  16347.80429
  1376.00000  16346.51962
  1376.50000  16345.25609
  1377.00000  16343.98732
  1377.50000  16342.71333
  1378.00000  16341.43410
  1378.50000  16340.14963
  1379.00000  16338.88636
  1379.50000  16337.59145
  1380.00000  16336.31775
  1380.50000  16335.03883
  1381.00000  16333.72823
  1381.50000  16332.43888
  1382.00000  16331.17080
  1382.50000  16329.87103
  1383.00000  16328.56605
  1383.50000  16327.28236
  1384.00000  16325.96696
  1384.50000  16324.67288
  1385.00000  16323.37361
  1385.50000  16322.06915
  1386.00000  16320.75948
  1386.50000  16319.47120
  1387.00000  16318.15116
  1387.50000  16316.85252
  1388.00000  16315.52209
  1388.50000  16314.21310
  1389.00000  16312.89893
  1389.50000  16311.57957
  1390.00000  16310.25504
  1390.50000  16308.95199
  1391.00000  16307.61712
  1391.50000  16306.27708
  1392.00000  16304.95854
  1392.50000  16303.63484
  1393.00000  16302.30600
  1393.50000  16300.97199
  1394.00000  16299.63282
  1394.50000  16298.28850
  1395.00000  16296.93903
  1395.50000  16295.61115
  1396.00000  16294.25136
  1396.50000  16292.91320
  1397.00000  16291.56990
  1397.50000  16290.22146
  1398.00000  16288.86787
  1398.50000  16287.50917
  1399.00000  16286.14530
  1399.50000  16284.80315
  1400.00000  16283.42903
